id(T),xyz(T),leftoright(S),lane_numer(S),lane_width(R),lane_cur(R),grade(R),slope(R),fliction(R),belt_type(R),curb_height(R)
0,429810.694 4414900.630 59.982 429801.777 4414905.871 60.043 429799.496 4414907.439 60.064 429797.292 4414908.931 60.094 429793.688 4414911.372 60.113 429791.903 4414912.582 60.158 429790.059 4414913.840 60.182 429787.993 4414915.248 60.198 429785.919 4414916.656 60.217 429783.936 4414918.000 60.236 429782.110 4414919.245 60.246 429779.557 4414920.982 60.260 429777.698 4414922.251 60.272 429775.790 4414923.554 60.283 429773.767 4414924.930 60.299 429772.041 4414926.110 60.309 429770.083 4414927.423 60.298 429767.960 4414928.890 60.362 429766.120 4414930.149 60.372 429764.284 4414931.389 60.371 429762.147 4414932.846 60.379 429759.864 4414934.395 60.391 429757.593 4414935.947 60.398 429755.843 4414937.139 60.403 429753.657 4414938.627 60.393 429751.480 4414940.113 60.431 429749.097 4414941.733 60.449 429747.327 4414942.938 60.457 429745.351 4414944.279 60.469 429743.129 4414945.792 60.471 429741.144 4414947.139 60.483 429739.434 4414948.303 60.496 429737.240 4414949.800 60.508 429735.334 4414951.092 60.514 429733.649 4414952.240 60.525 429731.176 4414953.946 60.532 429729.221 4414955.307 60.547 429727.257 4414956.685 60.548 429725.529 4414957.900 60.550 429722.974 4414959.715 60.556 429720.978 4414961.170 60.569 429719.288 4414962.425 60.578 429716.882 4414964.221 60.589 429715.004 4414965.627 60.596 429713.309 4414966.917 60.600 429710.742 4414968.882 60.605 429708.510 4414970.589 60.615 429706.473 4414972.190 60.623 429704.564 4414973.692 60.626 429702.086 4414975.675 60.633 429700.287 4414977.137 60.633 429698.579 4414978.537 60.633 429696.737 4414980.068 60.634 429694.929 4414981.570 60.624 429693.193 4414983.014 60.613 429691.481 4414984.456 60.633 429689.645 4414986.047 60.641 429687.965 4414987.521 60.644 429685.658 4414989.538 60.645 429683.525 4414991.421 60.647 429681.637 4414993.135 60.648 429680.111 4414994.518 60.652 429677.914 4414996.524 60.655 429675.697 4414998.597 60.658 429674.103 4415000.088 60.661 429672.173 4415001.921 60.652 429670.170 4415003.815 60.647 429667.941 4415005.970 60.645 429666.369 4415007.497 60.640 429664.617 4415009.230 60.636 429662.359 4415011.489 60.611 429660.583 4415013.260 60.618 429658.694 4415015.184 60.619 429657.171 4415016.762 60.620 429655.000 4415019.033 60.612 429653.047 4415021.089 60.608 429651.584 4415022.665 60.601 429649.814 4415024.583 60.593 429648.145 4415026.388 60.587 429646.651 4415028.020 60.580 429645.267 4415029.550 60.566 429643.719 4415031.286 60.562 429642.346 4415032.829 60.560 429641.041 4415034.533 60.549 429611.384 4415071.786 60.389 429609.892 4415073.874 60.423 429608.643 4415075.625 60.419 429607.153 4415077.759 60.427 429605.507 4415080.150 60.420 429603.848 4415082.586 60.411 429602.350 4415084.800 60.400 429600.732 4415087.236 60.386 429599.239 4415089.534 60.375 429597.484 4415092.247 60.366 429596.167 4415094.313 60.355 429594.872 4415096.370 60.344 429593.559 4415098.489 60.337 429592.153 4415100.784 60.318 429590.623 4415103.284 60.308 429589.519 4415105.113 60.302 429588.190 4415107.330 60.291 429586.700 4415109.858 60.283 429585.219 4415112.398 60.275 429584.033 4415114.489 60.271 429582.891 4415116.511 60.260 429581.741 4415118.556 60.248 429580.597 4415120.633 60.236 429579.335 4415122.949 60.224 429578.960 4415123.591 60.191 429578.648 4415124.165 60.188 429577.264 4415126.755 60.179 429576.314 4415128.546 60.173 429575.315 4415130.467 60.175 429574.263 4415132.567 60.142 429573.261 4415134.466 60.164 429572.277 4415136.379 60.158 429571.236 4415138.435 60.154 429570.318 4415140.325 60.149 429568.112 4415144.865 60.127 429567.164 4415146.827 60.115 429566.119 4415149.037 60.103 429565.235 4415150.932 60.098 429564.373 4415152.808 60.095 429563.195 4415155.416 60.089 429561.916 4415158.224 60.083 429560.973 4415160.387 60.078 429559.762 4415163.293 60.042 429558.255 4415166.818 60.067 429556.955 4415169.852 60.066 429556.119 4415171.887 60.063 429554.682 4415175.352 60.057 429553.409 4415178.421 60.052 429552.323 4415181.019 60.042 429551.467 4415183.043 60.037 429550.450 4415185.444 60.029 429549.216 4415188.474 60.015 429548.427 4415190.372 60.002 429547.465 4415192.665 59.954 429546.427 4415195.167 59.973 429545.600 4415197.147 59.966 429544.562 4415199.673 59.959 429543.065 4415203.265 59.965 429542.117 4415205.493 59.961 429541.019 4415208.193 59.955 429540.172 4415210.190 59.955 429539.033 4415212.955 59.962 429537.958 4415215.515 59.969 429537.034 4415217.803 59.971 429534.814 4415223.143 59.950 429533.976 4415225.164 59.934 429532.942 4415227.649 59.957 429532.014 4415229.904 59.965 429530.853 4415232.673 59.972 429530.074 4415234.554 59.978 429529.263 4415236.501 59.983 429528.235 4415239.004 59.981 429525.995 4415244.405 59.960 429524.658 4415247.569 59.962 429523.769 4415249.648 59.958 429522.866 4415251.696 59.955 429521.634 4415254.361 59.947 429519.474 4415259.105 59.915 429518.615 4415260.953 59.904 429517.394 4415263.469 59.889 429516.341 4415265.521 59.903 429515.359 4415267.501 59.900 429514.386 4415269.428 59.900 429513.359 4415271.447 59.902 429512.403 4415273.300 59.916 429511.450 4415275.105 59.926 429510.432 4415276.915 59.940 429508.949 4415279.540 59.946 429507.797 4415281.534 59.945 429506.771 4415283.275 59.947 429505.648 4415285.182 59.954 429504.073 4415287.864 59.963 429503.001 4415289.590 59.967 429501.777 4415291.502 59.970 429500.650 4415293.286 59.976 429499.026 4415295.786 59.974 429497.461 4415298.212 59.973 429495.710 4415300.774 59.945 429494.074 4415303.199 59.958 429492.776 4415305.092 59.958 429491.432 4415307.027 59.960 429489.266 4415310.002 59.969 429487.887 4415311.903 59.975 429486.325 4415314.003 59.980 429484.494 4415316.395 59.983 429483.015 4415318.270 59.985 429481.564 4415320.132 59.989 429480.147 4415321.912 59.994 429478.706 4415323.672 60.004 429477.332 4415325.335 60.016 429475.844 4415327.070 60.026 429474.097 4415329.112 60.042 429472.746 4415330.658 60.050 429471.268 4415332.352 60.054 429469.841 4415333.974 60.057 429468.466 4415335.494 60.063 429467.059 4415337.060 60.063 429465.982 4415338.288 60.091 429465.377 4415338.931 60.077 429462.470 4415341.989 60.097 429459.565 4415344.969 60.117 429457.633 4415346.918 60.125 429455.857 4415348.670 60.123 429454.337 4415350.135 60.121 429452.279 4415352.092 60.120 429450.802 4415353.474 60.123 429442.919 4415360.795 60.174 429441.101 4415362.494 60.167 429434.025 4415369.075 60.208 429432.300 4415370.652 60.215 429430.615 4415372.162 60.211 429393.174 4415406.745 60.428 429390.807 4415408.863 60.428 429389.058 4415410.482 60.439 429386.903 4415412.472 60.449 429384.929 4415414.295 60.460 429382.611 4415416.420 60.454 429381.088 4415417.838 60.485 429379.415 4415419.382 60.501 429377.637 4415421.018 60.502 429375.728 4415422.774 60.505 429373.699 4415424.645 60.516 429371.927 4415426.276 60.525 429370.387 4415427.698 60.532 429368.670 4415429.282 60.539 429367.054 4415430.769 60.551 429365.228 4415432.455 60.561 429363.160 4415434.349 60.569 429361.486 4415435.894 60.581 429359.467 4415437.740 60.588 429357.503 4415439.551 60.607 429355.789 4415441.133 60.618 429353.804 4415442.965 60.631 429351.802 4415444.788 60.606 429350.146 4415446.336 60.629 429348.201 4415448.121 60.641 429346.576 4415449.618 60.664 429344.557 4415451.475 60.693 429342.148 4415453.694 60.714 429340.677 4415455.051 60.718 429338.947 4415456.637 60.726 429337.074 4415458.357 60.735 429335.427 4415459.875 60.742 429333.636 4415461.579 60.755 429332.123 4415463.129 60.770 429330.636 4415464.709 60.772 429329.145 4415466.314 60.768 429327.612 4415467.952 60.779 429325.362 4415470.359 60.780 429323.898 4415471.928 60.791 429321.980 4415473.978 60.803 429320.555 4415475.474 60.804 429318.875 4415477.134 60.804 429317.498 4415478.431 60.809 429315.752 4415480.046 60.822 429313.580 4415482.052 60.836 429311.807 4415483.685 60.849 429310.113 4415485.242 60.859 429308.037 4415487.143 60.870 429306.170 4415488.868 60.880 429303.903 4415490.955 60.890 429302.153 4415492.565 60.898 429300.538 4415494.049 60.868 429298.958 4415495.517 60.913 429297.312 4415497.037 60.931 429295.494 4415498.708 60.935 429293.954 4415500.118 60.938 429292.448 4415501.504 60.939 429290.573 4415503.233 60.947 429288.623 4415505.031 60.969,,,,,,,,,
1,429248.323 4415497.013 61.047 429244.358 4415477.552 60.877 429243.810 4415474.931 60.898 429243.349 4415472.665 60.892 429242.927 4415470.554 60.883 429242.311 4415467.550 60.868 429241.706 4415464.526 60.865 429241.136 4415461.705 60.861 429240.490 4415458.559 60.851 429239.946 4415455.853 60.838 429239.650 4415454.362 60.842 429236.597 4415439.224 60.820 429235.898 4415435.741 60.796 429234.013 4415426.484 60.814 429233.523 4415423.990 60.808 429231.633 4415414.722 60.816 429230.436 4415408.764 60.833 429229.248 4415402.962 60.847 429226.298 4415388.255 60.865 429221.739 4415365.712 60.957 429220.880 4415361.374 60.968 429219.762 4415355.910 60.999 429219.170 4415352.969 60.999 429218.589 4415350.025 60.968 429217.989 4415347.086 61.009 429215.330 4415333.844 61.055 429213.860 4415326.654 61.076 429212.855 4415321.516 61.091 429211.232 4415313.575 61.112 429209.673 4415305.919 61.108 429209.058 4415302.811 61.126 429204.002 4415277.745 61.225 429203.147 4415273.531 61.234 429202.675 4415271.176 61.217 429202.254 4415269.120 61.254 429199.785 4415256.992 61.303 429195.590 4415236.274 61.366 429194.966 4415233.069 61.369 429194.489 4415230.773 61.393 429193.430 4415225.545 61.421 429192.006 4415218.692 61.468 429191.177 4415214.847 61.492 429190.119 4415210.104 61.511 429189.620 4415207.954 61.525 429189.407 4415207.062 61.529 429189.133 4415206.015 61.533 429188.173 4415202.509 61.546 429187.471 4415200.187 61.563 429186.616 4415197.375 61.540 429185.663 4415194.531 61.584 429184.915 4415192.281 61.589 429184.094 4415189.988 61.609 429183.331 4415187.932 61.621 429182.614 4415186.066 61.628 429181.876 4415184.207 61.637 429181.078 4415182.221 61.646 429180.179 4415180.214 61.651 429162.249 4415148.015 61.838 429162.202 4415147.758 61.829 429160.913 4415145.705 61.841 429159.943 4415144.303 61.859 429158.171 4415141.882 61.873 429156.776 4415140.035 61.874 429155.456 4415138.364 61.894 429152.124 4415134.216 61.939 429150.689 4415132.503 61.944 429149.388 4415130.985 61.950 429148.329 4415129.764 61.955 429147.440 4415128.766 61.963,,,,,,,,,
2,429123.140 4415105.950 62.186 429121.947 4415105.027 62.145 429119.653 4415103.272 62.155 429117.146 4415101.432 62.171 429114.078 4415099.256 62.198 429113.056 4415098.557 62.208 429110.565 4415096.885 62.232 429108.024 4415095.226 62.220 429105.859 4415093.880 62.252 429104.016 4415092.740 62.246 429102.944 4415092.103 62.260 429100.351 4415090.596 62.287 429097.966 4415089.248 62.296 429095.344 4415087.810 62.299 429093.344 4415086.738 62.322 429092.577 4415086.346 62.329 429090.691 4415085.423 62.341 429088.846 4415084.561 62.350 429086.259 4415083.456 62.356 429084.240 4415082.616 62.369 429082.309 4415081.810 62.385 429079.857 4415080.765 62.386 429077.550 4415079.796 62.378 429075.267 4415078.857 62.417 429073.406 4415078.079 62.428 429071.441 4415077.272 62.435 429069.407 4415076.383 62.440 429067.413 4415075.396 62.453 429065.442 4415074.412 62.460 429063.588 4415073.478 62.470 429061.501 4415072.432 62.484 429059.383 4415071.363 62.496 429057.119 4415070.228 62.510 429055.159 4415069.245 62.521 429052.589 4415067.949 62.518 429050.459 4415066.888 62.523 429048.125 4415065.707 62.549 429046.086 4415064.655 62.536 429043.346 4415063.310 62.581 429041.032 4415062.146 62.594 429038.817 4415061.040 62.609 429032.255 4415057.761 62.690,,,,,,,,,
