id(T),xyz(T),ID_LeftLane(L),ID_RightLane(L),lateral_id(L),direction(L),speed_min_limit(L),speed_max_limit(L)
0,429817.082 4414854.633 59.781 429816.297 4414850.729 59.851 429815.517 4414846.793 59.903 429814.738 4414842.864 59.925 429813.923 4414838.955 59.946 429813.354 4414836.142 59.978 429812.585 4414832.209 59.982 429811.812 4414828.287 59.989 429811.006 4414824.369 60.004 429810.219 4414820.446 60.013 429809.505 4414816.848 60.013 429808.718 4414812.933 60.031 429807.937 4414809.007 60.043 429807.139 4414805.087 60.073 429806.336 4414801.164 60.073 429805.593 4414797.545 60.082 429804.800 4414793.619 60.086 429804.021 4414789.694 60.011 429803.239 4414785.771 59.985 429802.440 4414781.852 59.950 429801.635 4414777.938 59.855 429800.837 4414774.022 59.820 429800.040 4414770.098 59.772 429799.251 4414766.173 59.660 429798.457 4414762.256 59.531 429797.658 4414758.337 59.531 429796.865 4414754.413 59.450 429796.068 4414750.501 59.444 429795.283 4414746.579 59.526 429794.500 4414742.656 59.526 429793.707 4414738.735 59.532 429792.905 4414734.817 59.553 429792.111 4414730.896 59.553 429791.320 4414726.975 59.567 429790.530 4414723.054 59.567 429789.747 4414719.144 59.594 429788.972 4414715.221 59.615 429788.177 4414711.284 59.629 429787.367 4414707.367 59.639 429786.594 4414703.452 59.641 429785.826 4414699.595 59.641 429785.053 4414695.671 59.653 429784.257 4414691.745 59.662 429783.465 4414687.834 59.669 429782.667 4414683.907 59.677 429781.882 4414679.985 59.682 429781.077 4414676.066 59.689 429780.291 4414672.148 59.694 429779.491 4414668.228 59.705 429778.698 4414664.308 59.710 429777.909 4414660.387 59.713 429777.121 4414656.465 59.713 429776.336 4414652.544 59.716 429775.541 4414648.623 59.685 429774.745 4414644.703 59.685 429773.953 4414640.783 59.682 429773.161 4414636.862 59.682 429772.365 4414632.942 59.672 429771.572 4414629.021 59.658 429770.784 4414625.099 59.658 429769.996 4414621.178 59.668 429769.208 4414617.256 59.660 429768.417 4414613.335 59.663 429767.636 4414609.410 59.662 429766.880 4414605.482 59.662,,0,0,0,0,0
1,429820.661 4414853.913 59.816 429819.862 4414850.048 59.886 429818.946 4414846.111 59.898 429818.137 4414842.178 59.916 429817.337 4414838.279 59.964 429816.768 4414835.469 60.019 429816.000 4414831.523 60.029 429815.225 4414827.606 60.040 429814.421 4414823.688 60.047 429813.633 4414819.762 60.063 429812.913 4414816.155 60.087 429812.124 4414812.253 60.097 429811.337 4414808.322 60.094 429810.541 4414804.402 60.115 429809.736 4414800.470 60.133 429808.999 4414796.865 60.141 429808.200 4414792.929 60.132 429807.412 4414789.004 60.090 429806.634 4414785.078 60.002 429805.837 4414781.159 59.968 429805.038 4414777.251 59.901 429804.241 4414773.342 59.840 429803.441 4414769.410 59.840 429802.649 4414765.476 59.674 429801.860 4414761.562 59.594 429801.069 4414757.642 59.546 429800.274 4414753.711 59.499 429799.484 4414749.811 59.490 429798.700 4414745.889 59.612 429797.920 4414741.965 59.612 429797.131 4414738.044 59.618 429796.332 4414734.125 59.638 429795.542 4414730.204 59.638 429794.754 4414726.282 59.653 429793.967 4414722.360 59.653 429793.192 4414718.473 59.680 429792.410 4414714.553 59.680 429791.595 4414710.586 59.686 429790.784 4414706.669 59.686 429790.027 4414702.773 59.688 429789.269 4414698.900 59.688 429788.499 4414694.975 59.698 429787.685 4414691.041 59.713 429786.884 4414687.151 59.716 429786.080 4414683.210 59.719 429785.298 4414679.287 59.733 429784.525 4414675.363 59.739 429783.764 4414671.445 59.755 429782.967 4414667.526 59.759 429782.172 4414663.606 59.764 429781.385 4414659.684 59.770 429780.601 4414655.761 59.770 429779.812 4414651.842 59.773 429779.004 4414647.925 59.769 429778.194 4414644.008 59.763 429777.405 4414640.086 59.760 429776.617 4414636.165 59.760 429775.813 4414632.246 59.746 429775.022 4414628.325 59.724 429774.244 4414624.402 59.724 429773.467 4414620.478 59.734 429772.669 4414616.558 59.721 429771.878 4414612.637 59.718 429771.098 4414608.708 59.717 429770.360 4414604.777 59.709,,0,0,0,0,0
2,429817.942 4414818.898 60.044 429818.750 4414822.824 60.077 429819.544 4414826.745 60.028 429820.316 4414830.655 59.948 429821.132 4414834.609 59.880 429821.681 4414837.418 59.880 429822.443 4414841.309 59.880 429823.248 4414845.256 59.865 429824.092 4414849.240 59.820 429824.836 4414853.073 59.808,,0,0,0,0,0
3,429821.356 4414818.213 60.007 429822.153 4414822.145 59.995 429822.928 4414826.070 59.983 429823.700 4414829.975 59.825 429824.503 4414833.945 59.825 429825.070 4414836.747 59.825 429825.854 4414840.621 59.825 429826.659 4414844.578 59.798 429828.133 4414848.468 59.798 429829.022 4414850.583 59.798,,0,0,0,0,0
4,429793.591 4414698.027 59.642 429794.374 4414701.912 59.550 429795.149 4414705.778 59.550 429795.936 4414709.700 59.550 429796.740 4414713.713 59.550 429797.526 4414717.630 59.550 429798.299 4414721.485 59.550 429799.086 4414725.407 59.550 429799.872 4414729.329 59.550 429800.659 4414733.251 59.550 429801.471 4414737.168 59.525 429802.267 4414741.088 59.516 429803.035 4414745.013 59.516 429803.818 4414748.936 59.547 429804.606 4414752.819 59.616 429805.385 4414756.762 59.680 429806.170 4414760.683 59.730 429806.972 4414764.589 59.821 429807.786 4414768.530 59.934 429808.576 4414772.476 59.992 429809.356 4414776.379 60.026 429810.163 4414780.275 60.097 429810.965 4414784.194 60.159 429811.759 4414788.119 60.159 429812.547 4414792.047 60.138 429813.348 4414795.998 60.164 429814.071 4414799.586 60.142 429814.863 4414803.532 60.142 429815.660 4414807.452 60.072 429816.442 4414811.390 60.072 429817.211 4414815.281 60.056 429817.942 4414818.898 60.044,,0,0,0,0,0
5,429796.980 4414697.342 59.675 429797.768 4414701.240 59.540 429798.545 4414705.086 59.540 429799.337 4414709.006 59.540 429800.154 4414713.050 59.540 429800.945 4414716.965 59.540 429801.719 4414720.795 59.540 429802.511 4414724.716 59.540 429803.304 4414728.636 59.540 429804.096 4414732.557 59.540 429804.906 4414736.474 59.612 429805.702 4414740.394 59.603 429806.470 4414744.320 59.603 429807.252 4414748.243 59.634 429808.041 4414752.111 59.634 429808.828 4414756.060 59.698 429809.609 4414759.982 59.698 429810.396 4414763.887 59.758 429811.178 4414767.843 59.879 429811.974 4414771.797 59.925 429812.762 4414775.691 59.972 429813.568 4414779.580 60.057 429814.360 4414783.501 60.092 429815.148 4414787.429 60.103 429815.939 4414791.359 60.091 429816.749 4414795.319 60.085 429817.472 4414798.892 60.066 429818.268 4414802.846 60.058 429819.061 4414806.767 60.038 429819.858 4414810.708 60.029 429820.632 4414814.585 60.014 429821.356 4414818.213 60.007,,0,0,0,0,0
6,429787.517 4414650.288 59.691 429788.334 4414654.198 59.691 429789.103 4414658.123 59.689 429789.925 4414662.038 59.675 429790.708 4414665.960 59.675 429791.492 4414669.883 59.675 429792.271 4414673.781 59.675 429793.055 4414677.704 59.675 429793.839 4414681.626 59.675 429794.634 4414685.603 59.675 429795.404 4414689.456 59.675 429796.196 4414693.420 59.675 429796.980 4414697.342 59.675,,0,0,0,0,0
7,429784.091 4414650.979 59.758 429784.885 4414654.895 59.790 429785.680 4414658.815 59.790 429786.474 4414662.735 59.784 429787.267 4414666.656 59.784 429788.061 4414670.577 59.749 429788.853 4414674.479 59.749 429789.641 4414678.401 59.773 429790.444 4414682.319 59.770 429791.240 4414686.281 59.722 429792.010 4414690.153 59.760 429792.801 4414694.106 59.760 429793.591 4414698.027 59.760,,0,0,0,0,0
8,429767.558 4414551.715 59.628 429767.658 4414552.220 59.628 429768.101 4414554.483 59.628 429768.907 4414558.408 59.636 429769.716 4414562.325 59.641 429770.510 4414566.255 59.650 429771.295 4414570.180 59.650 429772.099 4414574.111 59.669 429772.879 4414578.021 59.669 429773.668 4414581.942 59.671 429774.455 4414585.829 59.680 429775.256 4414589.777 59.690 429776.055 4414593.709 59.694 429776.414 4414595.498 59.694 429777.180 4414599.312 59.694 429777.992 4414603.229 59.703 429778.757 4414607.155 59.707 429779.531 4414611.094 59.702 429780.341 4414615.011 59.710 429781.167 4414618.925 59.710 429781.957 4414622.846 59.716 429782.741 4414626.768 59.743 429783.550 4414630.686 59.719 429784.352 4414634.604 59.719 429785.130 4414638.528 59.719 429785.908 4414642.452 59.717 429786.705 4414646.371 59.718 429787.517 4414650.288 59.715,,0,0,0,0,0
9,429764.066 4414552.023 59.566 429764.190 4414552.526 59.560 429764.714 4414555.170 59.587 429765.527 4414559.092 59.596 429766.339 4414563.008 59.625 429767.125 4414566.938 59.634 429767.901 4414570.864 59.634 429768.697 4414574.793 59.654 429769.486 4414578.704 59.662 429770.287 4414582.623 59.714 429771.069 4414586.520 59.722 429771.869 4414590.461 59.739 429772.671 4414594.389 59.755 429773.027 4414596.155 59.755 429773.797 4414599.998 59.761 429774.605 4414603.916 59.731 429775.370 4414607.842 59.783 429776.139 4414611.778 59.732 429776.956 4414615.693 59.740 429777.786 4414619.607 59.792 429778.572 4414623.528 59.758 429779.356 4414627.451 59.833 429780.161 4414631.369 59.814 429780.947 4414635.291 59.814 429781.745 4414639.211 59.814 429782.513 4414643.136 59.816 429783.296 4414647.059 59.811 429784.091 4414650.979 59.758,,0,0,0,0,0
10,429770.360 4414604.777 59.709 429769.526 4414600.864 59.705 429768.720 4414596.991 59.691 429768.372 4414595.252 59.691 429767.587 4414591.325 59.687 429766.789 4414587.394 59.671 429765.990 4414583.489 59.648 429765.199 4414579.568 59.648 429764.391 4414575.655 59.634 429763.597 4414571.730 59.612 429762.811 4414567.807 59.603 429762.014 4414563.883 59.597 429761.212 4414559.965 59.590 429760.394 4414556.046 59.582 429759.757 4414552.917 59.554 429759.653 4414552.412 59.554 429759.565 4414552.004 59.554,,0,0,0,0,0
11,429766.880 4414605.482 59.662 429766.058 4414601.568 59.659 429765.250 4414597.665 59.657 429764.902 4414595.950 59.657 429764.122 4414592.025 59.648 429763.329 4414588.100 59.627 429762.531 4414584.185 59.605 429761.735 4414580.265 59.605 429760.947 4414576.346 59.594 429760.162 4414572.422 59.581 429759.373 4414568.500 59.561 429758.579 4414564.578 59.552 429757.790 4414560.657 59.552 429756.992 4414556.736 59.541 429756.278 4414553.224 59.526 429756.175 4414552.719 59.526,,0,0,0,0,0
12,429751.490 4414511.100 59.292 429750.440 4414507.126 59.274 429749.658 4414503.281 59.274 429748.827 4414499.219 59.260 429748.054 4414495.358 59.214 429747.288 4414491.439 59.194 429746.475 4414487.522 59.185 429745.685 4414483.613 59.159 429744.115 4414475.766 59.114 429742.516 4414467.926 59.071 429741.750 4414464.001 59.039 429740.994 4414460.070 59.023 429740.292 4414456.138 58.998 429738.587 4414448.316 58.943,,0,0,0,0,0
13,429746.122 4414463.116 59.084 429746.871 4414467.044 59.205 429747.663 4414470.964 59.215 429748.477 4414474.884 59.222 429749.273 4414478.810 59.321 429750.072 4414482.728 59.321 429750.866 4414486.626 59.321 429751.665 4414490.545 59.321 429752.461 4414494.453 59.321 429753.237 4414498.257 59.321 429754.091 4414502.446 59.321 429754.861 4414506.225 59.321 429755.618 4414509.582 59.321,,0,0,0,0,0
14,429750.401 4414466.329 59.263 429751.195 4414470.249 59.263 429751.991 4414474.174 59.263 429752.787 4414478.102 59.263 429753.582 4414482.020 59.263 429754.370 4414485.911 59.263 429755.165 4414489.831 59.263 429755.956 4414493.735 59.263 429756.719 4414497.498 59.263 429757.589 4414501.787 59.263 429758.344 4414505.515 59.263 429759.065 4414508.802 59.263,,0,0,0,0,0
15,429747.039 4414507.819 59.240 429746.250 4414503.923 59.230 429745.467 4414499.951 59.213 429744.664 4414496.054 59.169 429743.869 4414492.136 59.156 429743.073 4414488.216 59.146 429742.274 4414484.301 59.115 429741.488 4414480.379 59.102 429740.688 4414476.459 59.072 429739.899 4414472.537 59.039 429739.109 4414468.616 59.028 429738.315 4414464.696 58.991 429737.522 4414460.775 58.977 429736.723 4414456.858 58.952 429735.929 4414452.936 58.911 429735.141 4414449.014 58.911 429734.346 4414445.094 58.885 429733.554 4414441.175 58.850 429732.864 4414437.766 58.850 429732.070 4414433.846 58.826 429731.275 4414429.926 58.794 429730.482 4414426.005 58.773,,0,0,0,0,0
16,429743.317 4414471.845 59.108 429744.884 4414479.695 59.151,,0,0,0,0,0
17,429735.688 4414376.199 58.638 429736.431 4414379.909 58.638 429737.199 4414383.788 58.647 429737.988 4414387.731 58.669 429738.777 4414391.694 58.681 429739.548 4414395.591 58.688 429740.350 4414399.510 58.688 429741.139 4414403.415 58.706 429741.918 4414407.375 58.721 429742.713 4414411.291 58.742 429743.519 4414415.233 58.755 429744.284 4414419.159 58.755 429745.057 4414423.053 58.769 429745.788 4414426.984 58.807 429746.532 4414430.920 58.807 429746.800 4414434.943 58.859 429747.049 4414438.458 58.848 429747.324 4414442.468 58.876 429747.669 4414446.477 58.941 429747.974 4414450.496 58.962 429748.365 4414454.510 58.988 429748.941 4414458.457 59.024 429749.630 4414462.406 59.035 429750.401 4414466.329 59.263,,0,0,0,0,0
18,429732.242 4414376.896 58.552 429732.995 4414380.605 58.572 429733.761 4414384.494 58.581 429734.546 4414388.433 58.604 429735.340 4414392.386 58.633 429736.124 4414396.287 58.651 429736.935 4414400.204 58.651 429737.720 4414404.113 58.683 429738.508 4414408.064 58.714 429739.320 4414411.977 58.751 429740.130 4414415.913 58.783 429740.875 4414419.843 58.783 429741.677 4414423.738 58.811 429742.341 4414427.683 58.851 429742.846 4414431.666 58.864 429743.206 4414435.671 58.891 429743.469 4414439.179 58.880 429743.747 4414443.192 58.894 429744.085 4414447.203 58.972 429744.414 4414451.217 58.993 429744.864 4414455.216 59.035 429745.452 4414459.165 59.067 429746.122 4414463.116 59.084,,0,0,0,0,0
19,429738.587 4414448.316 58.943 429737.783 4414444.399 58.932 429736.988 4414440.484 58.904 429736.296 4414437.071 58.904 429735.505 4414433.151 58.881 429734.702 4414429.231 58.846 429733.909 4414425.311 58.819,,0,0,0,0,0
20,429739.351 4414436.452 58.924 429738.788 4414432.487 58.898 429738.211 4414428.520 58.881 429737.432 4414424.598 58.848,,0,0,0,0,0
21,429730.482 4414426.005 58.773 429729.691 4414422.088 58.773 429728.897 4414418.167 58.746 429728.112 4414414.243 58.716 429727.322 4414410.322 58.689 429726.531 4414406.397 58.660 429725.741 4414402.478 58.650 429724.942 4414398.558 58.642 429724.151 4414394.640 58.605 429723.355 4414390.716 58.588 429722.557 4414386.794 58.569 429721.761 4414382.879 58.555 429720.996 4414379.173 58.552,,0,0,0,0,0
22,429733.909 4414425.311 58.819 429733.126 4414421.398 58.804 429732.335 4414417.477 58.790 429731.543 4414413.549 58.760 429730.751 4414409.630 58.742 429729.961 4414405.697 58.709 429729.178 4414401.779 58.697 429728.391 4414397.858 58.690 429727.604 4414393.945 58.644 429726.800 4414390.013 58.617 429726.002 4414386.087 58.615 429725.205 4414382.182 58.606 429724.406 4414378.483 58.603,,0,0,0,0,0
23,429737.432 4414424.598 58.848 429736.621 4414420.697 58.815 429735.907 4414416.761 58.794 429735.100 4414412.830 58.768 429734.213 4414408.931 58.761 429733.474 4414404.980 58.729 429732.687 4414401.067 58.702 429731.893 4414397.146 58.691 429731.101 4414393.240 58.644 429730.299 4414389.300 58.626 429729.457 4414385.377 58.621 429728.668 4414381.481 58.604 429727.884 4414377.779 58.604,,0,0,0,0,0
24,429664.448 4414352.730 58.249 429668.366 4414351.924 58.249 429672.284 4414351.118 58.249 429676.202 4414350.313 58.249 429680.120 4414349.507 58.249 429684.038 4414348.701 58.249 429687.956 4414347.896 58.249 429692.263 4414347.010 58.249 429695.857 4414346.271 58.249 429699.280 4414345.567 58.249 429699.713 4414345.478 58.249 429700.780 4414345.267 58.249,,0,0,0,0,0
25,429665.149 4414356.153 58.198 429669.072 4414355.372 58.191 429672.991 4414354.571 58.191 429676.910 4414353.771 58.190 429680.830 4414352.972 58.211 429684.749 4414352.173 58.227 429688.668 4414351.374 58.249 429692.918 4414350.507 58.249 429696.560 4414349.758 58.266 429699.995 4414349.063 58.275 429700.509 4414348.959 58.275 429701.467 4414348.720 58.275,,0,0,0,0,0
26,429665.849 4414359.574 58.150 429669.773 4414358.799 58.141 429673.694 4414358.007 58.141 429677.613 4414357.207 58.136 429681.534 4414356.413 58.169 429685.454 4414355.619 58.201 429689.374 4414354.822 58.236 429693.566 4414353.971 58.236 429697.257 4414353.215 58.275 429700.706 4414352.535 58.304 429701.300 4414352.418 58.304 429702.163 4414352.221 58.304,,0,0,0,0,0
27,429666.554 4414363.018 58.181 429670.475 4414362.229 58.169 429674.397 4414361.440 58.165 429678.316 4414360.639 58.171 429682.236 4414359.843 58.191 429686.156 4414359.049 58.206 429690.075 4414358.249 58.243 429694.210 4414357.407 58.257 429697.949 4414356.645 58.304 429701.406 4414355.956 58.324 429702.078 4414355.822 58.324 429702.857 4414355.711 58.324,,0,0,0,0,0
28,429703.038 4414360.018 58.321 429702.270 4414360.180 58.321 429698.814 4414360.932 58.297 429695.006 4414361.658 58.224 429690.936 4414362.452 58.192 429687.013 4414363.237 58.165 429683.097 4414364.050 58.144 429679.178 4414364.851 58.171 429675.259 4414365.651 58.186 429671.341 4414366.457 58.160 429667.423 4414367.267 58.160 429663.497 4414368.032 58.243 429659.574 4414368.811 58.255 429655.656 4414369.619 58.249 429652.927 4414370.177 58.316 429648.970 4414370.968 58.340 429645.014 4414371.762 58.340 429641.237 4414372.545 58.313 429637.228 4414373.363 58.349 429633.260 4414374.148 58.356 429628.575 4414375.080 58.395 429624.586 4414375.878 58.406 429620.653 4414376.663 58.517 429616.706 4414377.457 58.517 429612.791 4414378.243 58.535 429608.869 4414379.029 58.535 429604.959 4414379.842 58.570 429601.041 4414380.651 58.570 429597.115 4414381.439 58.588 429593.185 4414382.183 58.585 429589.251 4414382.976 58.591 429585.329 4414383.763 58.620 429581.570 4414384.547 58.618 429580.934 4414384.683 58.618 429577.029 4414385.469 58.649 429573.101 4414386.261 58.670 429569.172 4414387.052 58.684 429565.250 4414387.841 58.695 429561.354 4414388.625 58.728 429557.423 4414389.418 58.741 429553.494 4414390.209 58.767 429549.578 4414390.996 58.787 429545.658 4414391.789 58.795 429541.731 4414392.581 58.915 429537.809 4414393.373 58.927 429533.896 4414394.160 58.950 429529.971 4414394.948 58.950 429526.049 4414395.737 58.959 429522.118 4414396.528 58.959 429518.198 4414397.322 58.981 429514.282 4414398.115 58.981 429510.364 4414398.905 58.995 429506.440 4414399.695 58.995 429502.519 4414400.488 59.009 429498.593 4414401.281 59.009 429494.671 4414402.075 59.026 429490.759 4414402.867 59.116 429486.833 4414403.664 59.116 429482.913 4414404.456 59.130 429478.991 4414405.243 59.130 429475.066 4414406.040 59.143 429471.150 4414406.834 59.156,,0,0,0,0,0
29,429703.817 4414363.426 58.292 429702.971 4414363.604 58.292 429699.500 4414364.335 58.292 429695.651 4414365.107 58.166 429691.639 4414365.887 58.166 429687.717 4414366.676 58.114 429683.804 4414367.504 58.114 429679.881 4414368.285 58.156 429675.957 4414369.062 58.156 429672.039 4414369.871 58.103 429668.126 4414370.699 58.103 429664.196 4414371.449 58.248 429660.269 4414372.209 58.248 429656.355 4414373.033 58.195 429653.157 4414373.697 58.320 429649.200 4414374.489 58.320 429645.243 4414375.281 58.320 429641.381 4414376.101 58.267 429633.441 4414378.051 58.297,,0,0,0,0,0
30,429704.601 4414366.851 58.272 429703.675 4414367.044 58.298 429700.193 4414367.769 58.272 429696.298 4414368.562 58.178 429692.344 4414369.334 58.136 429688.423 4414370.124 58.130 429684.507 4414370.940 58.130 429680.583 4414371.719 58.145 429676.660 4414372.496 58.145 429672.741 4414373.297 58.118 429668.825 4414374.114 58.118 429664.900 4414374.888 58.191 429660.977 4414375.669 58.191 429657.061 4414376.483 58.164 429653.388 4414377.242 58.224 429649.423 4414377.915 58.248 429645.446 4414378.388 58.248,,0,0,0,0,0
31,429651.959 4414355.317 58.182 429652.698 4414355.167 58.182 429656.618 4414354.371 58.182 429660.532 4414353.546 58.186 429664.448 4414352.730 58.249,,0,0,0,0,0
32,429652.188 4414358.828 58.167 429653.397 4414358.582 58.150 429657.319 4414357.795 58.150 429661.230 4414356.953 58.144 429665.149 4414356.153 58.198,,0,0,0,0,0
