id(T),xyz(T),lane_type(L),lane_color(L)
0,429768.529 4414604.459 59.696 429767.437 4414599.569 59.686 429766.444 4414594.653 59.682 429765.461 4414589.741 59.673 429764.459 4414584.843 59.653 429763.474 4414579.949 59.632 429762.474 4414575.041 59.622 429761.503 4414570.138 59.607 429760.510 4414565.284 59.589 429759.522 4414560.359 59.585 429758.520 4414555.447 59.570 429757.905 4414552.429 59.548 429757.881 4414552.213 59.658,2,
1,429746.072 4414512.097 59.267 429745.178 4414507.239 59.233 429744.274 4414502.892 59.213 429743.568 4414499.034 59.194 429742.460 4414494.127 59.160 429741.481 4414489.220 59.132 429740.489 4414484.338 59.102 429739.499 4414479.426 59.076 429738.510 4414474.518 59.046 429737.513 4414469.594 59.018 429736.520 4414464.699 58.983 429735.524 4414459.778 58.954 429734.535 4414454.909 58.927 429733.551 4414450.014 58.892 429732.557 4414445.120 58.862 429731.161 4414438.220 58.826 429731.143 4414438.115 58.824 429730.150 4414433.213 58.798 429729.159 4414428.314 58.771 429728.165 4414423.413 58.750 429727.176 4414418.528 58.726 429726.195 4414413.603 58.697 429725.208 4414408.727 58.665 429724.222 4414403.841 58.640 429723.216 4414398.944 58.618 429722.243 4414394.135 58.580 429721.262 4414389.258 58.565 429720.257 4414384.353 58.543 429719.326 4414379.837 58.516 429719.272 4414379.522 58.603,2,
2,429736.029 4414427.049 58.875 429735.056 4414422.151 58.842 429734.069 4414417.230 58.812 429733.076 4414412.329 58.786 429732.061 4414407.315 58.771 429731.091 4414402.445 58.736 429730.115 4414397.551 58.713 429729.141 4414392.698 58.660 429728.127 4414387.772 58.622 429727.155 4414382.903 58.635 429726.150 4414378.446 58.619 429726.072 4414378.131 58.599,2,
3,429732.534 4414427.306 58.818 429731.546 4414422.394 58.797 429730.553 4414417.486 58.767 429729.567 4414412.574 58.734 429728.580 4414407.677 58.712 429727.601 4414402.795 58.681 429726.615 4414397.906 58.667 429725.624 4414392.996 58.629 429724.623 4414388.124 58.611 429723.640 4414383.244 58.594 429722.879 4414379.541 58.587 429722.719 4414378.817 58.601,2,
4,429704.997 4414368.584 58.315 429704.035 4414368.804 58.326 429700.546 4414369.518 58.274 429695.653 4414370.505 58.205 429691.182 4414371.328 58.122 429651.124 4414379.553 58.161 429639.411 4414379.984 58.210 429634.423 4414380.133 58.255 429629.427 4414380.383 58.289 429624.623 4414381.278 58.315 429619.751 4414382.246 58.346 429614.854 4414383.221 58.365 429609.936 4414384.236 58.383 429605.015 4414385.225 58.415 429600.130 4414386.204 58.445 429595.228 4414387.189 58.465 429590.303 4414388.185 58.484 429582.279 4414389.824 58.527 429581.989 4414389.868 58.528 429577.121 4414390.859 58.559 429572.214 4414391.838 58.584 429567.319 4414392.827 58.611 429562.378 4414393.836 58.637 429557.458 4414394.811 58.657 429552.562 4414395.793 58.679 429547.681 4414396.781 58.705 429542.774 4414397.762 58.726 429537.857 4414398.754 58.749 429532.969 4414399.741 58.776 429528.082 4414400.717 58.796 429519.393 4414402.465 58.830 429519.036 4414402.545 58.828 429514.110 4414403.545 58.854 429509.243 4414404.527 58.882 429504.310 4414405.519 58.903 429499.430 4414406.507 58.925 429494.516 4414407.505 58.946 429489.626 4414408.500 58.960 429484.728 4414409.484 58.979 429479.828 4414410.482 58.998 429474.934 4414411.475 59.025 429470.034 4414412.475 59.059 429465.116 4414413.472 59.073 429460.223 4414414.462 59.069 429455.350 4414415.470 59.088 429453.666 4414415.832 59.097 429453.245 4414415.885 59.116 429448.344 4414416.869 59.153 429443.481 4414417.843 59.175 429438.552 4414418.833 59.197 429434.933 4414419.813 59.230 429434.650 4414419.888 59.245,2,
5,429473.906 4414408.073 59.099 429469.000 4414409.065 59.125 429464.105 4414410.065 59.126 429459.248 4414411.057 59.125 429453.136 4414412.308 59.155 429452.672 4414412.393 59.168 429447.774 4414413.390 59.201 429442.910 4414414.391 59.221 429438.046 4414415.374 59.240 429435.001 4414416.012 59.266,2,
6,429406.788 4414425.690 59.353 429404.755 4414425.953 59.378 429399.252 4414427.655 59.396 429394.489 4414429.222 59.435 429389.748 4414430.855 59.453 429385.019 4414432.528 59.472 429380.354 4414434.311 59.485 429375.698 4414436.191 59.500 429371.102 4414438.150 59.523 429366.547 4414440.203 59.546 429362.005 4414442.365 59.563 429357.532 4414444.564 59.583 429353.189 4414446.818 59.596 429348.795 4414449.308 59.618 429344.426 4414451.836 59.639 429340.204 4414454.422 59.655 429337.764 4414455.946 59.665 429337.421 4414456.213 59.674 429333.232 4414458.928 59.700 429329.082 4414461.756 59.733 429324.994 4414464.654 59.757 429321.021 4414467.641 59.784 429317.084 4414470.750 59.809 429313.231 4414473.897 59.833 429309.432 4414477.142 59.864 429305.667 4414480.502 59.883 429301.997 4414483.903 59.908 429298.416 4414487.384 59.937 429294.902 4414490.915 59.962 429291.436 4414494.527 59.987 429287.150 4414499.165 60.016 429286.767 4414499.666 60.016 429283.489 4414503.490 60.042 429280.339 4414507.361 60.063 429277.262 4414511.308 60.086 429274.232 4414515.277 60.112 429271.276 4414519.309 60.134 429268.398 4414523.380 60.163 429265.555 4414527.525 60.196 429262.769 4414531.664 60.217 429259.973 4414535.823 60.245 429257.174 4414539.973 60.273 429254.381 4414544.128 60.295 429251.577 4414548.302 60.316 429246.783 4414555.405 60.349 429246.609 4414555.647 60.352 429243.813 4414559.810 60.367 429241.014 4414563.981 60.383 429238.182 4414568.159 60.403 429235.402 4414572.272 60.423 429232.635 4414576.385 60.446 429229.822 4414580.521 60.469 429227.023 4414584.668 60.490 429224.231 4414588.801 60.514 429221.403 4414592.944 60.541 429218.622 4414597.084 60.564 429215.825 4414601.204 60.586 429213.026 4414605.336 60.609 429210.224 4414609.489 60.629 429205.843 4414616.000 60.668 429205.604 4414616.330 60.676 429202.820 4414620.490 60.696 429200.014 4414624.636 60.718 429197.213 4414628.765 60.743 429194.416 4414632.902 60.768 429191.617 4414637.040 60.793 429188.814 4414641.183 60.809 429185.994 4414645.354 60.835 429183.203 4414649.497 60.861 429180.379 4414653.669 60.888 429177.595 4414657.790 60.906 429174.790 4414661.951 60.926 429171.983 4414666.099 60.944 429167.290 4414673.019 60.986 429167.218 4414673.159 60.985 429164.405 4414677.324 61.013 429161.600 4414681.487 61.037 429158.775 4414685.663 61.058 429155.957 4414689.795 61.079 429153.154 4414693.964 61.096 429150.356 4414698.076 61.119 429147.588 4414702.202 61.148 429144.784 4414706.343 61.166 429141.970 4414710.515 61.184 429139.136 4414714.716 61.198 429136.352 4414718.851 61.226 429133.558 4414722.987 61.263 429130.751 4414727.132 61.291 429128.043 4414731.148 61.318 429127.738 4414731.579 61.320 429124.950 4414735.722 61.344 429122.137 4414739.882 61.370 429119.335 4414744.020 61.393 429116.544 4414748.167 61.412 429113.772 4414752.273 61.436 429110.984 4414756.395 61.457 429108.202 4414760.520 61.477 429105.442 4414764.645 61.505 429102.687 4414768.876 61.532 429100.029 4414773.141 61.549 429097.515 4414777.491 61.564 429095.172 4414781.901 61.601 429093.405 4414785.349 61.630 429093.084 4414786.163 61.633 429090.901 4414790.681 61.661 429088.779 4414795.201 61.684 429086.720 4414799.726 61.701 429084.691 4414804.292 61.715 429082.724 4414808.889 61.735 429080.891 4414813.536 61.764 429079.214 4414818.250 61.789 429077.691 4414823.024 61.813 429076.266 4414827.824 61.848 429074.925 4414832.632 61.883 429073.702 4414837.468 61.909 429072.578 4414842.379 61.933 429071.580 4414847.273 61.953 429070.960 4414850.432 61.966 429070.929 4414850.875 61.964 429070.124 4414855.817 61.990 429069.421 4414860.740 62.019 429068.835 4414865.722 62.041 429068.337 4414870.685 62.056 429067.858 4414875.652 62.074 429067.387 4414880.657 62.096 429066.939 4414885.624 62.123 429066.496 4414890.625 62.147 429066.036 4414895.603 62.167 429065.581 4414900.606 62.185 429065.106 4414905.569 62.207 429064.618 4414910.545 62.226 429064.091 4414915.510 62.240 429063.423 4414921.597 62.264 429063.382 4414921.941 62.267 429062.835 4414926.895 62.294 429062.293 4414931.864 62.322 429061.733 4414936.807 62.342 429061.139 4414941.735 62.354 429060.892 4414943.457 62.360 429059.465 4414955.450 62.397 429057.145 4414964.777 62.456 429055.894 4414969.638 62.466 429054.541 4414974.437 62.490 429054.352 4414975.061 62.494 429054.230 4414975.484 62.496 429052.741 4414980.256 62.517 429051.211 4414985.017 62.549 429049.620 4414989.782 62.572 429047.971 4414994.507 62.596 429046.254 4414999.195 62.616 429044.486 4415003.875 62.646 429042.598 4415008.548 62.659 429040.667 4415013.184 62.660 429038.719 4415017.836 62.686 429037.457 4415020.809 62.703 429036.004 4415024.149 62.735 429035.914 4415024.359 62.730,2,
7,429044.758 4414985.217 62.643 429043.157 4414989.919 62.669 429041.490 4414994.618 62.689 429039.750 4414999.275 62.706 429037.915 4415003.923 62.728 429036.019 4415008.547 62.745 429034.073 4415013.175 62.767 429032.101 4415017.768 62.782 429030.683 4415021.091 62.800 429030.522 4415021.477 62.778,2,
8,429042.835 4415040.833 62.691 429047.325 4415043.108 62.690 429051.765 4415045.310 62.670 429056.200 4415047.565 62.636 429060.985 4415049.966 62.604 429061.567 4415050.267 62.602 429066.067 4415052.510 62.570 429070.511 4415054.738 62.541 429074.926 4415056.969 62.511 429079.113 4415059.070 62.486 429080.758 4415059.923 62.483 429081.805 4415060.432 62.481 429086.268 4415062.654 62.454 429090.710 4415064.871 62.404 429095.170 4415067.130 62.420 429099.609 4415069.386 62.367 429104.020 4415071.709 62.332 429108.388 4415074.137 62.313 429112.773 4415076.616 62.306 429117.080 4415079.215 62.275 429121.222 4415081.892 62.249 429125.303 4415084.788 62.234 429129.428 4415087.773 62.206 429133.406 4415090.742 62.182 429137.439 4415093.870 62.150 429137.741 4415094.174 62.144,2,
9,429160.681 4415115.386 62.013 429161.143 4415116.467 62.017 429162.252 4415117.943 62.005 429170.439 4415127.727 61.931 429173.191 4415131.499 61.907 429174.739 4415133.577 61.885 429179.225 4415140.112 61.846 429181.999 4415144.422 61.814 429184.550 4415148.707 61.773 429187.080 4415153.079 61.746 429188.337 4415155.392 61.735 429190.042 4415158.579 61.722 429192.401 4415163.025 61.713 429194.585 4415167.492 61.702 429196.611 4415171.931 61.688 429198.633 4415176.609 61.624 429200.473 4415181.205 61.544 429202.191 4415185.954 61.480 429203.774 4415190.681 61.439 429205.211 4415195.456 61.523 429206.507 4415200.315 61.551 429207.662 4415205.199 61.520 429208.786 4415210.099 61.504 429209.817 4415214.963 61.489 429210.815 4415219.932 61.459 429211.855 4415224.897 61.441 429212.838 4415229.860 61.420 429213.862 4415234.733 61.401 429214.829 4415239.668 61.384 429215.806 4415244.441 61.365 429216.877 4415249.726 61.342 429217.052 4415250.562 61.336 429218.045 4415255.319 61.311 429218.227 4415256.001 61.306 429228.282 4415305.711 61.129 429229.168 4415310.656 61.133 429230.213 4415315.593 61.110 429231.189 4415320.464 61.094 429232.170 4415325.392 61.075 429233.188 4415330.317 61.061 429234.181 4415335.226 61.046 429234.723 4415337.828 61.039 429234.750 4415337.999 61.041 429235.724 4415342.854 61.023 429236.709 4415347.718 61.002 429237.699 4415352.664 61.006 429238.685 4415357.550 60.996 429239.659 4415362.444 60.973 429240.643 4415367.358 60.957 429241.652 4415372.262 60.938 429242.630 4415377.124 60.922 429243.617 4415382.015 60.910 429244.610 4415386.924 60.897 429245.587 4415391.819 60.887 429246.576 4415396.718 60.878 429247.560 4415401.612 60.869 429248.566 4415406.508 60.861 429249.573 4415411.432 60.857 429250.780 4415416.283 60.852 429252.150 4415421.075 60.847 429252.742 4415423.075 60.844 429252.885 4415423.321 60.842 429254.279 4415428.118 60.840 429255.594 4415432.930 60.843 429256.754 4415437.744 60.850 429257.793 4415442.615 60.849 429258.785 4415447.503 60.859 429259.771 4415452.397 60.870 429260.764 4415457.289 60.891 429261.754 4415462.189 60.918 429262.741 4415467.038 60.937 429263.500 4415470.880 60.954 429264.415 4415474.854 60.985 429264.923 4415476.149 60.996 429265.459 4415476.945 61.000,2,
10,429253.903 4415453.878 60.960 429254.909 4415458.734 60.976 429255.890 4415463.586 61.001 429256.841 4415468.410 61.035 429257.832 4415473.299 61.034 429258.602 4415476.868 61.034 429259.953 4415483.716 61.060,2,
11,429262.381 4415480.670 61.045 429261.437 4415476.232 61.026 429260.861 4415473.002 61.006 429259.872 4415468.168 60.988 429258.871 4415463.253 60.956 429257.879 4415458.307 60.939 429256.870 4415453.288 60.919,2,
12,429285.840 4415490.334 61.056 429289.529 4415486.938 61.046 429293.216 4415483.576 61.005 429296.881 4415480.197 60.976 429300.541 4415476.828 60.960 429302.108 4415475.407 60.953 429305.750 4415472.045 60.945 429309.436 4415468.650 60.931 429313.112 4415465.264 60.896 429316.785 4415461.876 60.906 429320.463 4415458.500 60.884 429324.134 4415455.123 60.860 429327.810 4415451.752 60.821 429331.477 4415448.376 60.783 429335.157 4415444.991 60.779 429338.819 4415441.586 60.751 429342.501 4415438.183 60.759 429346.199 4415434.803 60.715 429353.329 4415428.258 60.666 429353.341 4415428.236 60.683 429357.014 4415424.853 60.663 429360.673 4415421.477 60.658 429364.346 4415418.091 60.645 429368.028 4415414.698 60.622 429371.690 4415411.313 60.600 429375.361 4415407.937 60.578 429379.039 4415404.547 60.553 429382.731 4415401.169 60.530 429386.390 4415397.786 60.519 429390.072 4415394.389 60.493 429393.739 4415391.011 60.485 429397.441 4415387.611 60.472 429401.122 4415384.230 60.439 429404.796 4415380.844 60.429 429408.659 4415377.296 60.404 429408.732 4415377.229 60.393 429412.399 4415373.836 60.376 429416.072 4415370.442 60.357 429419.747 4415367.062 60.337 429423.414 4415363.683 60.315 429427.084 4415360.304 60.306 429430.765 4415356.905 60.298 429434.445 4415353.511 60.281 429438.097 4415350.123 60.259 429441.760 4415346.701 60.238 429445.381 4415343.255 60.225 429448.971 4415339.777 60.214 429452.505 4415336.259 60.205 429455.980 4415332.682 60.183 429458.508 4415329.986 60.170 429458.623 4415329.847 60.169 429461.969 4415326.144 60.156 429465.274 4415322.387 60.143 429468.525 4415318.573 60.133 429471.695 4415314.709 60.119 429474.804 4415310.780 60.101 429477.833 4415306.814 60.076 429480.799 4415302.795 60.059 429483.694 4415298.734 60.052 429486.508 4415294.634 60.045 429489.290 4415290.478 60.053 429492.007 4415286.267 60.047 429494.634 4415282.029 60.040 429497.189 4415277.736 60.028 429499.673 4415273.374 60.004 429502.075 4415268.976 59.978 429504.386 4415264.534 59.969 429506.635 4415260.064 59.957 429508.814 4415255.578 59.969 429510.551 4415251.947 59.982 429510.511 4415251.916 59.990 429512.570 4415247.345 60.018 429514.579 4415242.737 60.028 429516.545 4415238.138 60.037 429518.480 4415233.509 60.046 429520.403 4415228.896 60.050 429522.314 4415224.278 60.037 429524.230 4415219.667 60.020 429526.161 4415215.042 60.029 429528.089 4415210.441 60.049 429529.998 4415205.844 60.067 429531.915 4415201.223 60.090 429533.833 4415196.597 60.088 429535.751 4415191.973 60.086 429537.660 4415187.362 60.085 429539.574 4415182.740 60.103 429541.503 4415178.131 60.120 429543.427 4415173.526 60.134 429547.009 4415164.979 60.163 429547.076 4415164.843 60.161 429549.023 4415160.251 60.183 429551.015 4415155.659 60.203 429553.025 4415151.106 60.221 429555.080 4415146.561 60.234 429557.209 4415142.044 60.250 429559.388 4415137.553 60.270 429561.624 4415133.042 60.284 429563.880 4415128.572 60.286 429566.188 4415124.126 60.298 429568.504 4415119.720 60.320 429570.886 4415115.333 60.338 429573.323 4415110.955 60.356 429575.802 4415106.620 60.376 429578.324 4415102.296 60.397 429580.882 4415097.992 60.407 429583.480 4415093.714 60.423 429587.907 4415086.628 60.449 429588.005 4415086.524 60.450 429590.733 4415082.321 60.460 429593.495 4415078.153 60.476 429596.293 4415074.013 60.495 429599.133 4415069.898 60.507 429601.424 4415066.613 60.508 429601.640 4415066.310 60.506,2,
13,429279.729 4415485.502 60.999 429281.380 4415484.643 61.003 429282.325 4415483.746 61.086 429285.697 4415480.646 60.949 429289.457 4415477.269 60.956 429293.135 4415473.881 60.903 429297.150 4415470.207 60.862 429297.544 4415469.834 60.877 429301.237 4415466.447 60.858 429304.904 4415463.075 60.848 429308.574 4415459.681 60.832 429312.242 4415456.297 60.812 429315.919 4415452.918 60.790 429319.604 4415449.529 60.763 429323.286 4415446.148 60.740 429326.961 4415442.755 60.715 429330.663 4415439.352 60.692 429334.333 4415435.963 60.645 429338.026 4415432.568 60.644 429341.691 4415429.185 60.619 429348.281 4415423.122 60.593 429348.483 4415422.927 60.593 429352.150 4415419.548 60.586 429355.850 4415416.145 60.576 429359.514 4415412.758 60.551 429363.179 4415409.379 60.540 429366.879 4415405.977 60.519 429370.553 4415402.574 60.500 429374.222 4415399.195 60.477 429377.922 4415395.811 60.454 429381.582 4415392.428 60.434 429385.272 4415389.029 60.410 429388.966 4415385.626 60.393 429392.648 4415382.238 60.375 429396.309 4415378.870 60.358 429399.978 4415375.492 60.335 429403.526 4415372.219 60.312 429403.909 4415371.874 60.309 429407.586 4415368.493 60.298 429411.257 4415365.102 60.270 429414.934 4415361.714 60.250 429418.605 4415358.318 60.238 429422.288 4415354.931 60.231 429425.973 4415351.533 60.210 429429.639 4415348.143 60.187 429433.317 4415344.756 60.166 429436.979 4415341.354 60.153 429440.605 4415337.930 60.147 429444.188 4415334.454 60.141 429447.718 4415330.903 60.131 429451.186 4415327.283 60.113 429453.059 4415325.268 60.102 429453.232 4415325.089 60.101 429456.570 4415321.395 60.090 429459.868 4415317.647 60.075 429463.126 4415313.820 60.062 429466.300 4415309.951 60.056 429469.401 4415306.013 60.048 429472.430 4415302.033 60.035 429475.386 4415297.987 60.020 429478.278 4415293.901 60.012 429481.104 4415289.778 60.007 429483.871 4415285.638 60.007 429486.554 4415281.449 60.006 429489.163 4415277.204 60.000 429491.688 4415272.895 59.980 429494.139 4415268.544 59.958 429496.512 4415264.150 59.947 429498.820 4415259.714 59.933 429501.031 4415255.190 59.919 429503.792 4415249.412 59.916 429504.062 4415248.802 59.924 429506.129 4415244.257 59.937 429508.116 4415239.658 59.943 429510.056 4415235.059 59.944 429511.971 4415230.426 59.954 429513.891 4415225.801 59.959 429515.807 4415221.201 59.940 429517.733 4415216.573 59.938 429519.661 4415211.983 59.964 429521.596 4415207.357 59.990 429523.510 4415202.747 59.999 429525.422 4415198.124 60.004 429527.340 4415193.493 60.000 429529.257 4415188.888 59.991 429531.155 4415184.287 59.991 429533.076 4415179.679 59.999 429534.982 4415175.075 60.016 429536.888 4415170.470 60.034 429540.255 4415162.426 60.075 429540.420 4415162.078 60.075 429542.371 4415157.476 60.093 429544.349 4415152.899 60.113 429546.380 4415148.301 60.129 429548.438 4415143.749 60.148 429550.576 4415139.217 60.171 429552.754 4415134.728 60.197 429554.974 4415130.241 60.213 429557.224 4415125.785 60.218 429559.518 4415121.325 60.224 429561.848 4415116.888 60.238 429564.214 4415112.500 60.256 429566.652 4415108.110 60.275 429569.128 4415103.759 60.298 429571.648 4415099.413 60.307 429574.202 4415095.112 60.316 429576.806 4415090.843 60.332 429581.697 4415083.007 60.355 429581.897 4415082.722 60.357 429584.620 4415078.536 60.374 429587.377 4415074.379 60.389 429590.172 4415070.235 60.398 429593.001 4415066.124 60.410 429595.407 4415062.711 60.425 429595.644 4415062.402 60.457 429595.830 4415062.117 60.458,2,
14,429582.826 4415087.920 60.390 429585.546 4415083.680 60.407 429588.277 4415079.482 60.423 429591.050 4415075.302 60.438 429593.856 4415071.158 60.451 429596.715 4415067.047 60.465 429598.767 4415064.236 60.482,2,
15,429600.490 4415055.575 60.458 429602.753 4415052.713 60.458 429605.822 4415048.756 60.474 429608.950 4415044.857 60.490 429612.132 4415041.021 60.494 429613.479 4415039.405 60.493,2,
